File: data/XRD/2021_03_30/211_6554_10x3F_v16T80_T500v2.txt
Index	X	Acquisition
0	-2.81233	3
14	-2.40884	28
28	-2.00536	37
42	-1.60188	30
56	-1.1984	42
70	-0.794913	27
84	-0.39143	35
98	0.0120529	37
112	0.415537	30
126	0.819029	25
140	1.22254	29
154	1.62607	44
168	2.02963	49
182	2.43324	29
196	2.83689	60
210	3.2406	53
224	3.64437	35
238	4.04822	51
252	4.45214	49
266	4.85615	48
280	5.26026	50
294	5.66447	59
308	6.06879	51
322	6.47323	76
336	6.8778	74
350	7.2825	100
364	7.68735	593
378	8.09234	5388
392	8.4975	5950
406	8.90282	5886
420	9.30832	5584
434	9.714	5542
448	10.1199	5490
462	10.5259	5535
476	10.9322	5381
490	11.3387	5588
504	11.7454	5632
518	12.1524	5621
532	12.5596	5747
546	12.967	5675
560	13.3747	5558
574	13.7826	5769
588	14.1908	5769
602	14.5993	5832
616	15.0081	5914
630	15.4172	5794
644	15.8266	5729
658	16.2363	5867
672	16.6463	5896
686	17.0566	5950
700	17.4673	5848
714	17.8783	5958
728	18.2896	5993
742	18.7013	5902
756	19.1134	5947
770	19.5259	6007
784	19.9387	5996
798	20.3519	5864
812	20.7656	5918
826	21.1795	5931
840	21.5938	5943
854	22.0083	5809
868	22.423	6060
882	22.8377	5967
896	23.2525	6154
910	23.6673	5806
924	24.0819	6045
938	24.4965	5860
952	24.9107	5989
966	25.3247	6110
980	25.7384	6230
994	26.1516	6078
1008	26.5644	6089
1022	26.9766	6188
1036	27.3882	6023
1050	27.7991	6194
1064	28.2092	6147
1078	28.6186	6058
1092	29.0271	6328
1106	29.4347	6379
1120	29.8414	6662
1134	30.2476	6388
1148	30.6533	6365
1162	31.0588	6206
1176	31.4642	6135
1190	31.8698	6121
1204	32.2757	6115
1218	32.6822	6254
1232	33.0894	6063
1246	33.4975	6207
1260	33.9068	6361
1274	34.3172	6142
1288	34.7284	6392
1302	35.1402	6446
1316	35.5521	6418
1330	35.9638	6297
1344	36.3752	6130
1358	36.7862	6200
1372	37.1972	6384
1386	37.6082	6478
1400	38.0193	6376
1414	38.4307	6315
1428	38.8425	6116
1442	39.2549	6394
1456	39.6681	6321
1470	40.0821	6379
1484	40.4968	6156
1498	40.9119	6354
1512	41.3268	6256
1526	41.7413	6193
1540	42.1549	6127
1554	42.5673	6201
1568	42.978	6237
1582	43.3866	6589
1596	43.7929	7476
1610	44.1974	8213
1624	44.6012	7883
1638	45.0053	6644
1652	45.4109	6091
1666	45.8189	6358
1680	46.2304	6272
1694	46.6465	6347
1708	47.0682	6380
1722	47.4945	6563
1736	47.9223	6365
1750	48.3479	6354
1764	48.768	6463
1778	49.1821	6460
1792	49.5921	6479
1806	50.0001	6610
1820	50.408	6592
1834	50.8164	6554
1848	51.2251	6443
1862	51.6337	6277
1876	52.042	6629
1890	52.4496	6455
1904	52.8563	6277
1918	53.2618	6439
1932	53.6662	6515
1946	54.07	6235
1960	54.4743	6305
1974	54.88	6512
1988	55.2879	6391
2002	55.6989	6352
2016	56.1139	6287
2030	56.5333	6432
2044	56.9549	6456
2058	57.3753	6313
2072	57.7911	6251
2086	58.2014	6528
2100	58.6088	6506
2114	59.0155	6416
2128	59.4239	6536
2142	59.8341	6673
2156	60.2457	6465
2170	60.6585	6358
2184	61.0714	6408
2198	61.4825	6349
2212	61.8899	6467
2226	62.2927	6471
2240	62.6922	6570
2254	63.0898	6337
2268	63.487	6457
2282	63.8854	6402
2296	64.2865	6362
2310	64.6919	6478
2324	65.1019	6274
2338	65.5159	6268
2352	65.9332	6198
2366	66.3529	6150
2380	66.7742	6337
2394	67.1964	6286
2408	67.6187	6473
2422	68.0402	6271
2436	68.4603	6323
2450	68.878	6079
2464	69.2927	6221
2478	69.7036	6067
2492	70.1101	6262
2506	70.5146	6154
2520	70.9201	6165
2534	71.3297	6435
2548	71.7435	6264
2562	72.1597	6158
2576	72.5766	6415
2590	72.9931	6263
2604	73.4089	6296
2618	73.8235	6185
2632	74.2366	6255
2646	74.6477	6235
2660	75.0565	6310
2674	75.4634	6190
2688	75.8698	6224
2702	76.277	6018
2716	76.6864	6052
2730	77.0992	6218
2744	77.5167	6300
2758	77.9383	6064
2772	78.3603	5966
2786	78.7794	6199
2800	79.194	5945
2814	79.6049	5937
2828	80.0129	5969
2842	80.419	6092
2856	80.824	6392
2870	81.2288	6778
2884	81.634	6454
2898	82.0397	6348
2912	82.4461	6155
2926	82.8533	6042
2940	83.2615	6006
2954	83.6708	5834
2968	84.0814	6006
2982	84.4934	5994
2996	84.9069	5979
3010	85.3216	5912
3024	85.7368	6154
3038	86.1515	5854
3052	86.5649	6004
3066	86.9764	5981
3080	87.385	6019
3094	87.7916	5900
3108	88.1977	6067
3122	88.6049	5807
3136	89.0147	5751
3150	89.4289	5737
3164	89.8485	5822
3178	90.2709	5713
3192	90.6912	5914
3206	91.1058	5835
3220	91.5173	5854
3234	91.9307	6192
3248	92.3499	5780
3262	92.7737	5838
3276	93.1989	5805
3290	93.6227	5653
3304	94.0421	5641
3318	94.4542	5811
3332	94.856	5855
3346	95.2446	5678
3360	95.6171	5750
3374	95.9734	5619
3388	96.323	5722
3402	96.677	5878
3416	97.0465	5789
3430	97.4428	5812
3444	97.877	5928
3458	98.3578	5903
3472	98.8645	5756
3486	99.3583	5640
3500	99.8144	5807
3514	100.239	5900
3528	100.64	5580
3542	101.029	5611
3556	101.414	5533
3570	101.805	5664
3584	102.207	5568
3598	102.617	5656
3612	103.027	5770
3626	103.421	5641
3640	103.814	5532
3654	104.208	5494
3668	104.602	5464
3682	104.996	5544
3696	105.389	5486
3710	105.783	5625
3724	106.177	5730
3738	106.57	5725
3752	106.964	5754
3766	107.358	5610
3780	107.752	5664
3794	108.145	5607
3808	108.539	5442
3822	108.933	5559
3836	109.327	5352
3850	109.72	5426
3864	110.114	5591
3878	110.508	5272
3892	110.901	5394
3906	111.295	5340
3920	111.689	5354
3934	112.083	5441
3948	112.476	5551
3962	112.87	5652
3976	113.264	5685
3990	113.657	5583
4004	114.051	6027
4018	114.445	7175
4032	114.839	10506
4046	115.232	720
4060	115.626	56
4074	116.02	53
4088	116.414	41
4095	116.61	33