File: data/XRD/2021_03_30/steel_csv.dat
 0.1033       39.34
 0.5115       40.98
 0.9198       48.58
 1.3280       35.51
 1.7362       44.12
 2.1445       49.82
 2.5527       53.90
 2.9610       51.53
 3.3692       46.44
 3.7774       54.36
 4.1857       41.06
 4.5939       51.11
 5.0022       59.82
 5.4104       50.81
 5.8186       57.46
 6.2269       76.77
 6.6351       69.15
 7.0434       95.14
 7.4516      151.56
 7.8598     2775.26
 8.2681     6448.40
 8.6763     6466.04
 9.0846     6236.37
 9.4928     5962.12
 9.9010     5946.88
10.3093     5885.33
10.7175     5964.02
11.1258     5998.29
11.5340     5912.19
11.9422     6156.68
12.3505     6231.52
12.7587     6160.43
13.1670     6248.14
13.5752     6254.09
13.9834     6168.15
14.3917     6343.90
14.7999     6244.39
15.2082     6113.90
15.6164     6241.15
16.0246     6278.71
16.4329     6274.28
16.8411     6183.18
17.2494     6245.04
17.6576     6281.00
18.0658     6286.32
18.4741     6372.56
18.8823     6365.33
19.2906     6307.88
19.6988     6282.73
20.1070     6229.33
20.5153     6304.55
20.9235     6420.30
21.3318     6332.89
21.7400     6355.35
22.1482     6440.47
22.5565     6373.47
22.9647     6350.07
23.3730     6536.73
23.7812     6493.58
24.1894     6403.73
24.5977     6505.63
25.0059     6427.17
25.4142     6463.15
25.8224     6446.59
26.2306     6612.71
26.6389     6528.38
27.0471     6507.83
27.4554     6480.53
27.8636     6546.66
28.2718     6584.01
28.6801     6455.58
29.0883     6445.93
29.4966     6422.92
29.9048     6519.75
30.3130     6490.84
30.7213     6453.22
31.1295     6537.30
31.5378     6525.43
31.9460     6556.01
32.3542     6481.84
32.7625     6504.25
33.1707     6625.20
33.5790     6341.93
33.9872     6514.42
34.3954     6548.72
34.8037     6630.64
35.2119     6639.71
35.6202     6465.38
36.0284     6774.43
36.4366     6468.96
36.8449     6585.64
37.2531     6666.64
37.6614     6640.47
38.0696     6717.39
38.4778     6687.17
38.8861     6568.94
39.2943     6684.17
39.7026     6641.39
40.1108     6633.28
40.5190     6711.53
40.9273     6631.99
41.3355     6653.45
41.7438     6618.28
42.1520     6540.99
42.5602     6618.22
42.9685     6756.59
43.3767     7643.14
43.7850     8565.75
44.1932     8356.00
44.6014     7716.27
45.0097     6747.91
45.4179     6609.80
45.8262     6746.11
46.2344     6768.99
46.6426     6822.93
47.0509     6759.60
47.4591     6847.11
47.8674     6800.55
48.2756     6776.88
48.6838     6759.77
49.0921     6770.89
49.5003     6720.15
49.9086     6686.34
50.3168     6820.13
50.7250     6834.42
51.1333     6809.89
51.5415     6811.13
51.9498     6716.75
52.3580     6797.73
52.7662     6888.22
53.1745     6582.34
53.5827     6829.79
53.9910     6765.17
54.3992     6648.74
54.8074     6892.64
55.2157     6806.69
55.6239     6622.83
56.0322     6772.50
56.4404     6779.41
56.8486     6791.13
57.2569     6466.64
57.6651     6707.93
58.0734     6594.52
58.4816     6542.53
58.8898     6803.89
59.2981     6681.29
59.7063     6395.29
60.1146     6809.79
60.5228     6718.66
60.9310     6652.58
61.3393     6778.00
61.7475     6790.49
62.1558     6441.77
62.5640     6769.12
62.9722     6803.75
63.3805     6596.44
63.7887     6740.38
64.1970     6952.86
64.6052     6783.50
65.0134     6492.64
65.4217     6606.04
65.8299     6850.68
66.2382     6600.59
66.6464     6581.31
67.0546     6703.56
67.4629     6818.84
67.8711     6572.18
68.2794     6647.58
68.6876     6720.61
69.0958     6576.86
69.5041     6506.84
69.9123     6422.15
70.3206     6647.06
70.7288     6524.83
71.1370     6609.68
71.5453     6526.53
71.9535     6718.74
72.3618     6551.86
72.7700     6561.59
73.1782     6452.29
73.5865     6557.91
73.9947     6394.53
74.4030     6533.50
74.8112     6516.99
75.2194     6625.33
75.6277     6403.07
76.0359     6386.16
76.4442     6431.61
76.8524     6508.78
77.2606     6587.74
77.6689     6443.28
78.0771     6468.80
78.4854     6296.84
78.8936     6360.23
79.3018     6123.20
79.7101     6342.93
80.1183     6405.18
80.5266     6620.51
80.9348     6981.88
81.3430     6825.98
81.7513     6915.38
82.1595     6608.09
82.5678     6357.66
82.9760     6255.44
83.3842     6213.76
83.7925     6428.38
84.2007     6391.21
84.6090     6341.22
85.0172     6318.36
85.4254     6314.78
85.8337     6309.61
86.2419     6243.79
86.6502     6340.92
87.0584     6208.38
87.4666     6308.48
87.8749     6298.98
88.2831     6141.69
88.6914     6128.77
89.0996     6280.45
89.5078     6032.67
89.9161     6171.97
90.3243     6104.11
90.7326     6235.44
91.1408     6029.17
91.5490     6189.18
91.9573     6377.74
92.3655     6135.46
92.7738     6166.34
93.1820     6108.21
93.5902     6101.08
93.9985     6109.82
94.4067     6124.71
94.8150     6078.11
95.2232     5963.15
95.6314     6023.73
96.0397     5849.65
96.4479     6034.48
96.8562     6094.03
97.2644     6072.73
97.6726     6223.65
98.0809     6127.00
98.4891     6221.24
98.8974     6075.44
99.3056     5961.12
99.7138     6000.73
100.1221     5935.20
100.5303     5912.38
100.9386     5902.97
101.3468     5772.49
101.7550     6018.76
102.1633     5879.50
102.5715     5880.04
102.9798     5837.25
103.3880     5867.30
103.7962     5872.90
104.2045     5861.69
104.6127     5955.36
105.0210     5777.77
105.4292     5753.70
105.8374     5754.14
106.2457     5771.08
106.6539     5730.69
107.0622     5874.96
107.4704     5887.74
107.8786     5918.33
108.2869     5675.25
108.6951     5814.20
109.1034     5673.73
109.5116     5497.44
109.9198     5741.39
110.3281     5594.71
110.7363     5534.20
111.1446     5773.49
111.5528     5739.89
111.9610     5817.15
112.3693     5765.41
112.7775     5854.80
113.1858     5805.35
113.5940     5849.23
114.0022     6285.82
114.4105     7333.51
114.8187    11020.14
115.2270     1099.11
115.6352       66.41
116.0434       56.63
116.4517       41.90
116.5975       44.95