File: data/XRD/2021_03_30/zro2.txt
 0.1033       28.01
 0.5115       28.39
 0.9198       28.55
 1.3280       21.43
 1.7362       33.19
 2.1445       43.77
 2.5527       61.07
 2.9610       46.67
 3.3692       35.00
 3.7774       47.38
 4.1857       32.75
 4.5939       29.43
 5.0022       37.35
 5.4104       45.77
 5.8186       43.74
 6.2269       47.11
 6.6351       63.29
 7.0434       82.56
 7.4516      157.44
 7.8598     2647.35
 8.2681     5251.74
 8.6763     5280.05
 9.0846     5299.21
 9.4928     5041.14
 9.9010     4923.91
10.3093     5018.85
10.7175     5124.04
11.1258     5106.28
11.5340     5079.81
11.9422     5201.29
12.3505     5379.97
12.7587     5247.21
13.1670     5219.08
13.5752     5317.11
13.9834     5253.27
14.3917     5378.99
14.7999     5371.75
15.2082     5256.19
15.6164     5380.74
16.0246     5263.80
16.4329     5479.75
16.8411     5302.51
17.2494     5398.40
17.6576     5409.60
18.0658     5568.88
18.4741     5413.12
18.8823     5472.18
19.2906     5403.05
19.6988     5478.45
20.1070     5482.92
20.5153     5528.26
20.9235     5492.55
21.3318     5567.86
21.7400     5463.11
22.1482     5578.15
22.5565     5492.03
22.9647     5569.62
23.3730     5506.87
23.7812     5647.88
24.1894     5567.53
24.5977     5534.45
25.0059     5560.19
25.4142     5536.90
25.8224     5551.39
26.2306     5632.56
26.6389     5601.06
27.0471     5701.85
27.4554     5865.36
27.8636     5776.53
28.2718     5643.46
28.6801     5849.14
29.0883     6006.53
29.4966     6312.36
29.9048     6781.33
30.3130     6476.99
30.7213     6148.15
31.1295     5928.67
31.5378     5740.13
31.9460     5715.32
32.3542     5680.98
32.7625     5826.42
33.1707     5736.98
33.5790     5590.32
33.9872     5721.56
34.3954     5842.56
34.8037     5983.95
35.2119     5832.85
35.6202     5832.50
36.0284     5789.91
36.4366     5890.01
36.8449     5675.24
37.2531     5732.66
37.6614     5736.24
38.0696     5738.96
38.4778     5775.29
38.8861     5755.51
39.2943     5700.24
39.7026     5886.70
40.1108     5663.13
40.5190     5831.06
40.9273     5806.15
41.3355     5773.62
41.7438     5713.19
42.1520     5834.52
42.5602     5745.64
42.9685     5874.26
43.3767     6374.86
43.7850     7140.78
44.1932     7519.48
44.6014     6855.30
45.0097     6096.04
45.4179     5773.85
45.8262     5723.46
46.2344     5930.19
46.6426     5909.83
47.0509     5804.09
47.4591     5914.37
47.8674     5809.59
48.2756     5882.09
48.6838     6002.26
49.0921     6018.33
49.5003     6124.00
49.9086     6265.63
50.3168     6350.75
50.7250     6197.22
51.1333     6142.05
51.5415     5958.24
51.9498     5950.87
52.3580     5855.65
52.7662     5970.01
53.1745     5915.61
53.5827     5998.58
53.9910     5806.02
54.3992     5986.85
54.8074     5863.41
55.2157     5963.26
55.6239     5786.89
56.0322     5900.33
56.4404     5876.43
56.8486     5828.31
57.2569     5687.14
57.6651     5874.08
58.0734     5969.74
58.4816     5879.42
58.8898     6046.67
59.2981     6067.69
59.7063     5797.74
60.1146     6130.99
60.5228     6017.58
60.9310     5870.98
61.3393     6118.16
61.7475     6007.72
62.1558     5740.77
62.5640     5746.40
62.9722     5905.20
63.3805     5784.79
63.7887     5951.30
64.1970     5990.66
64.6052     6036.12
65.0134     5687.50
65.4217     5762.02
65.8299     5810.83
66.2382     5667.49
66.6464     5762.88
67.0546     5737.34
67.4629     5759.51
67.8711     5883.82
68.2794     5812.58
68.6876     5756.95
69.0958     5689.76
69.5041     5591.55
69.9123     5626.91
70.3206     5699.99
70.7288     5665.89
71.1370     5836.33
71.5453     5680.61
71.9535     5657.07
72.3618     5813.24
72.7700     5809.49
73.1782     5758.16
73.5865     5659.70
73.9947     5591.37
74.4030     5759.15
74.8112     5705.86
75.2194     5842.28
75.6277     5664.45
76.0359     5625.36
76.4442     5614.11
76.8524     5530.55
77.2606     5646.00
77.6689     5713.73
78.0771     5644.85
78.4854     5605.50
78.8936     5494.25
79.3018     5464.63
79.7101     5558.97
80.1183     5605.78
80.5266     5826.06
80.9348     6158.54
81.3430     6224.17
81.7513     6132.78
82.1595     5844.21
82.5678     5707.43
82.9760     5715.93
83.3842     5528.94
83.7925     5591.54
84.2007     5704.04
84.6090     5512.90
85.0172     5650.03
85.4254     5594.98
85.8337     5684.39
86.2419     5548.80
86.6502     5480.12
87.0584     5519.64
87.4666     5415.04
87.8749     5594.33
88.2831     5431.31
88.6914     5299.87
89.0996     5471.83
89.5078     5295.81
89.9161     5374.05
90.3243     5499.30
90.7326     5484.80
91.1408     5494.21
91.5490     5396.62
91.9573     5593.58
92.3655     5332.66
92.7738     5325.89
93.1820     5379.72
93.5902     5368.56
93.9985     5440.29
94.4067     5275.24
94.8150     5406.59
95.2232     5317.22
95.6314     5397.58
96.0397     5179.88
96.4479     5269.08
96.8562     5416.49
97.2644     5383.52
97.6726     5398.28
98.0809     5377.00
98.4891     5401.55
98.8974     5233.50
99.3056     5236.82
99.7138     5209.72
100.1221     5264.98
100.5303     5179.61
100.9386     5164.51
101.3468     5158.11
101.7550     5211.60
102.1633     5226.15
102.5715     5313.95
102.9798     5231.71
103.3880     5078.64
103.7962     5139.96
104.2045     5248.56
104.6127     5269.97
105.0210     5187.00
105.4292     5040.27
105.8374     5110.91
106.2457     5113.15
106.6539     5125.81
107.0622     5224.18
107.4704     5143.85
107.8786     5076.88
108.2869     4993.83
108.6951     5227.00
109.1034     4964.39
109.5116     5031.17
109.9198     5065.76
110.3281     4891.89
110.7363     4891.35
111.1446     5055.81
111.5528     5169.22
111.9610     5084.51
112.3693     5123.47
112.7775     5184.77
113.1858     5077.07
113.5940     5280.88
114.0022     5457.85
114.4105     6485.27
114.8187     9514.91
115.2270     1079.04
115.6352       47.15
116.0434       37.37
116.4517       31.53
116.5975       37.03