File: data/XRD/Plot/207_6113_10x2F_v18T40_T500v2.txt
#Index	X	Acquisition
0	-2.81233	5
14	-2.40884	22
28	-2.00536	34
42	-1.60188	27
56	-1.1984	22
70	-0.794913	22
84	-0.39143	33
98	0.0120529	30
112	0.415537	32
126	0.819029	29
140	1.22254	25
154	1.62607	33
168	2.02963	42
182	2.43324	66
196	2.83689	49
210	3.2406	35
224	3.64437	43
238	4.04822	47
252	4.45214	42
266	4.85615	36
280	5.26026	41
294	5.66447	50
308	6.06879	51
322	6.47323	48
336	6.8778	68
350	7.2825	102
364	7.68735	525
378	8.09234	4829
392	8.4975	5247
406	8.90282	5276
420	9.30832	5098
434	9.714	5173
448	10.1199	5115
462	10.5259	5059
476	10.9322	5022
490	11.3387	5134
504	11.7454	5131
518	12.1524	5292
532	12.5596	5263
546	12.967	5400
560	13.3747	5331
574	13.7826	5347
588	14.1908	5243
602	14.5993	5375
616	15.0081	5391
630	15.4172	5262
644	15.8266	5409
658	16.2363	5437
672	16.6463	5414
686	17.0566	5330
700	17.4673	5401
714	17.8783	5567
728	18.2896	5528
742	18.7013	5260
756	19.1134	5424
770	19.5259	5456
784	19.9387	5574
798	20.3519	5428
812	20.7656	5366
826	21.1795	5328
840	21.5938	5420
854	22.0083	5384
868	22.423	5595
882	22.8377	5473
896	23.2525	5357
910	23.6673	5599
924	24.0819	5568
938	24.4965	5516
952	24.9107	5443
966	25.3247	5545
980	25.7384	5607
994	26.1516	5814
1008	26.5644	5721
1022	26.9766	5608
1036	27.3882	5656
1050	27.7991	5868
1064	28.2092	5753
1078	28.6186	5708
1092	29.0271	6163
1106	29.4347	6267
1120	29.8414	6753
1134	30.2476	6611
1148	30.6533	6050
1162	31.0588	5859
1176	31.4642	5860
1190	31.8698	5697
1204	32.2757	5755
1218	32.6822	5669
1232	33.0894	5628
1246	33.4975	5638
1260	33.9068	5769
1274	34.3172	5798
1288	34.7284	5878
1302	35.1402	6038
1316	35.5521	5973
1330	35.9638	5837
1344	36.3752	5655
1358	36.7862	5605
1372	37.1972	5757
1386	37.6082	5815
1400	38.0193	5812
1414	38.4307	5748
1428	38.8425	5729
1442	39.2549	5644
1456	39.6681	5759
1470	40.0821	5754
1484	40.4968	5826
1498	40.9119	5825
1512	41.3268	5777
1526	41.7413	5693
1540	42.1549	5803
1554	42.5673	5813
1568	42.978	5994
1582	43.3866	6513
1596	43.7929	7122
1610	44.1974	7428
1624	44.6012	6829
1638	45.0053	6093
1652	45.4109	5778
1666	45.8189	5722
1680	46.2304	5928
1694	46.6465	5903
1708	47.0682	5826
1722	47.4945	6109
1736	47.9223	6000
1750	48.3479	5848
1764	48.768	6165
1778	49.1821	6136
1792	49.5921	6333
1806	50.0001	6460
1820	50.408	6125
1834	50.8164	6217
1848	51.2251	6075
1862	51.6337	5819
1876	52.042	5922
1890	52.4496	6004
1904	52.8563	5724
1918	53.2618	6041
1932	53.6662	5954
1946	54.07	5946
1960	54.4743	5954
1974	54.88	6114
1988	55.2879	5979
2002	55.6989	6020
2016	56.1139	5858
2030	56.5333	5775
2044	56.9549	6050
2058	57.3753	5903
2072	57.7911	5771
2086	58.2014	6052
2100	58.6088	6269
2114	59.0155	6099
2128	59.4239	6166
2142	59.8341	6210
2156	60.2457	6192
2170	60.6585	6076
2184	61.0714	6018
2198	61.4825	6057
2212	61.8899	6063
2226	62.2927	6012
2240	62.6922	5938
2254	63.0898	5975
2268	63.487	5795
2282	63.8854	5819
2296	64.2865	5914
2310	64.6919	6023
2324	65.1019	5909
2338	65.5159	5836
2352	65.9332	5629
2366	66.3529	5839
2380	66.7742	5753
2394	67.1964	5769
2408	67.6187	5842
2422	68.0402	5899
2436	68.4603	5712
2450	68.878	5574
2464	69.2927	5714
2478	69.7036	5571
2492	70.1101	5611
2506	70.5146	5643
2520	70.9201	5686
2534	71.3297	5753
2548	71.7435	5771
2562	72.1597	5713
2576	72.5766	5735
2590	72.9931	5711
2604	73.4089	5945
2618	73.8235	5660
2632	74.2366	5804
2646	74.6477	5712
2660	75.0565	5645
2674	75.4634	5622
2688	75.8698	5740
2702	76.277	5495
2716	76.6864	5513
2730	77.0992	5739
2744	77.5167	5715
2758	77.9383	5602
2772	78.3603	5584
2786	78.7794	5626
2800	79.194	5413
2814	79.6049	5381
2828	80.0129	5697
2842	80.419	5858
2856	80.824	5894
2870	81.2288	6166
2884	81.634	6139
2898	82.0397	6034
2912	82.4461	5943
2926	82.8533	5484
2940	83.2615	5440
2954	83.6708	5310
2968	84.0814	5369
2982	84.4934	5635
2996	84.9069	5544
3010	85.3216	5398
3024	85.7368	5593
3038	86.1515	5323
3052	86.5649	5611
3066	86.9764	5481
3080	87.385	5530
3094	87.7916	5222
3108	88.1977	5574
3122	88.6049	5250
3136	89.0147	5334
3150	89.4289	5392
3164	89.8485	5456
3178	90.2709	5281
3192	90.6912	5574
3206	91.1058	5456
3220	91.5173	5334
3234	91.9307	5541
3248	92.3499	5337
3262	92.7737	5404
3276	93.1989	5410
3290	93.6227	5298
3304	94.0421	5240
3318	94.4542	5336
3332	94.856	5535
3346	95.2446	5419
3360	95.6171	5402
3374	95.9734	5139
3388	96.323	5310
3402	96.677	5411
3416	97.0465	5508
3430	97.4428	5493
3444	97.877	5404
3458	98.3578	5292
3472	98.8645	5137
3486	99.3583	5215
3500	99.8144	5408
3514	100.239	5339
3528	100.64	5185
3542	101.029	5182
3556	101.414	5079
3570	101.805	5206
3584	102.207	4911
3598	102.617	5277
3612	103.027	5317
3626	103.421	5159
3640	103.814	5275
3654	104.208	5186
3668	104.602	5266
3682	104.996	5242
3696	105.389	5109
3710	105.783	5159
3724	106.177	5204
3738	106.57	5095
3752	106.964	5193
3766	107.358	4986
3780	107.752	5023
3794	108.145	5261
3808	108.539	5040
3822	108.933	5084
3836	109.327	4894
3850	109.72	4898
3864	110.114	4913
3878	110.508	4861
3892	110.901	4900
3906	111.295	4948
3920	111.689	5185
3934	112.083	5111
3948	112.476	5170
3962	112.87	5224
3976	113.264	5213
3990	113.657	5357
4004	114.051	5656
4018	114.445	6644
4032	114.839	9802
4046	115.232	645
4060	115.626	45
4074	116.02	36
4088	116.414	41
4095	116.61	34