File: data/XRD/Plot/226_0001_4x2F_v10T40_T300v2.txt
#Index	X	Acquisition
0	-2.81233	6
14	-2.40884	36
28	-2.00536	28
42	-1.60188	27
56	-1.1984	39
70	-0.794913	46
84	-0.39143	46
98	0.0120529	29
112	0.415537	31
126	0.819029	47
140	1.22254	32
154	1.62607	32
168	2.02963	51
182	2.43324	55
196	2.83689	50
210	3.2406	60
224	3.64437	49
238	4.04822	46
252	4.45214	58
266	4.85615	54
280	5.26026	62
294	5.66447	45
308	6.06879	54
322	6.47323	63
336	6.8778	65
350	7.2825	109
364	7.68735	535
378	8.09234	5468
392	8.4975	6374
406	8.90282	6115
420	9.30832	5838
434	9.714	5732
448	10.1199	5747
462	10.5259	5880
476	10.9322	5686
490	11.3387	5858
504	11.7454	5891
518	12.1524	5971
532	12.5596	5972
546	12.967	5927
560	13.3747	5908
574	13.7826	6010
588	14.1908	6053
602	14.5993	6168
616	15.0081	5931
630	15.4172	6035
644	15.8266	6055
658	16.2363	6094
672	16.6463	6095
686	17.0566	6225
700	17.4673	6080
714	17.8783	6026
728	18.2896	6253
742	18.7013	5909
756	19.1134	6091
770	19.5259	6173
784	19.9387	6094
798	20.3519	6042
812	20.7656	6117
826	21.1795	6030
840	21.5938	6195
854	22.0083	6128
868	22.423	6163
882	22.8377	6159
896	23.2525	6013
910	23.6673	6208
924	24.0819	6213
938	24.4965	5993
952	24.9107	6357
966	25.3247	6327
980	25.7384	6274
994	26.1516	6516
1008	26.5644	6489
1022	26.9766	6282
1036	27.3882	6286
1050	27.7991	6505
1064	28.2092	6230
1078	28.6186	6387
1092	29.0271	6333
1106	29.4347	6539
1120	29.8414	6562
1134	30.2476	6339
1148	30.6533	6181
1162	31.0588	6398
1176	31.4642	6317
1190	31.8698	6350
1204	32.2757	6235
1218	32.6822	6224
1232	33.0894	6400
1246	33.4975	6256
1260	33.9068	6293
1274	34.3172	6234
1288	34.7284	6475
1302	35.1402	6363
1316	35.5521	6435
1330	35.9638	6431
1344	36.3752	6455
1358	36.7862	6363
1372	37.1972	6470
1386	37.6082	6545
1400	38.0193	6387
1414	38.4307	6346
1428	38.8425	6472
1442	39.2549	6326
1456	39.6681	6548
1470	40.0821	6557
1484	40.4968	6421
1498	40.9119	6320
1512	41.3268	6526
1526	41.7413	6476
1540	42.1549	6421
1554	42.5673	6378
1568	42.978	6612
1582	43.3866	7190
1596	43.7929	8272
1610	44.1974	8101
1624	44.6012	7253
1638	45.0053	6368
1652	45.4109	6604
1666	45.8189	6472
1680	46.2304	6511
1694	46.6465	6662
1708	47.0682	6512
1722	47.4945	6685
1736	47.9223	6665
1750	48.3479	6534
1764	48.768	6708
1778	49.1821	6526
1792	49.5921	6771
1806	50.0001	6723
1820	50.408	6635
1834	50.8164	6686
1848	51.2251	6753
1862	51.6337	6524
1876	52.042	6607
1890	52.4496	6543
1904	52.8563	6180
1918	53.2618	6398
1932	53.6662	6647
1946	54.07	6378
1960	54.4743	6595
1974	54.88	6682
1988	55.2879	6536
2002	55.6989	6587
2016	56.1139	6498
2030	56.5333	6561
2044	56.9549	6587
2058	57.3753	6475
2072	57.7911	6498
2086	58.2014	6454
2100	58.6088	6740
2114	59.0155	6387
2128	59.4239	6576
2142	59.8341	6599
2156	60.2457	6548
2170	60.6585	6595
2184	61.0714	6492
2198	61.4825	6497
2212	61.8899	6576
2226	62.2927	6575
2240	62.6922	6407
2254	63.0898	6602
2268	63.487	6658
2282	63.8854	6619
2296	64.2865	6540
2310	64.6919	6510
2324	65.1019	6348
2338	65.5159	6487
2352	65.9332	6481
2366	66.3529	6335
2380	66.7742	6420
2394	67.1964	6362
2408	67.6187	6426
2422	68.0402	6332
2436	68.4603	6495
2450	68.878	6266
2464	69.2927	6390
2478	69.7036	6226
2492	70.1101	6252
2506	70.5146	6218
2520	70.9201	6223
2534	71.3297	6346
2548	71.7435	6454
2562	72.1597	6340
2576	72.5766	6413
2590	72.9931	6560
2604	73.4089	6357
2618	73.8235	6282
2632	74.2366	6412
2646	74.6477	6385
2660	75.0565	6419
2674	75.4634	6271
2688	75.8698	6348
2702	76.277	6053
2716	76.6864	6100
2730	77.0992	6155
2744	77.5167	6425
2758	77.9383	6327
2772	78.3603	6165
2786	78.7794	6156
2800	79.194	6137
2814	79.6049	5952
2828	80.0129	6322
2842	80.419	6455
2856	80.824	6557
2870	81.2288	6887
2884	81.634	6596
2898	82.0397	6391
2912	82.4461	6210
2926	82.8533	6161
2940	83.2615	5965
2954	83.6708	5969
2968	84.0814	6043
2982	84.4934	6177
2996	84.9069	6005
3010	85.3216	5932
3024	85.7368	6104
3038	86.1515	5929
3052	86.5649	6115
3066	86.9764	5900
3080	87.385	6095
3094	87.7916	6012
3108	88.1977	6179
3122	88.6049	5823
3136	89.0147	5927
3150	89.4289	5847
3164	89.8485	5807
3178	90.2709	5971
3192	90.6912	5886
3206	91.1058	5886
3220	91.5173	6000
3234	91.9307	6106
3248	92.3499	5860
3262	92.7737	5981
3276	93.1989	6072
3290	93.6227	5945
3304	94.0421	5727
3318	94.4542	5744
3332	94.856	6010
3346	95.2446	5799
3360	95.6171	5741
3374	95.9734	5775
3388	96.323	5852
3402	96.677	5683
3416	97.0465	5929
3430	97.4428	6029
3444	97.877	5936
3458	98.3578	5805
3472	98.8645	5807
3486	99.3583	5622
3500	99.8144	5818
3514	100.239	5627
3528	100.64	5744
3542	101.029	5595
3556	101.414	5581
3570	101.805	5626
3584	102.207	5535
3598	102.617	5698
3612	103.027	5732
3626	103.421	5761
3640	103.814	5665
3654	104.208	5817
3668	104.602	5699
3682	104.996	5610
3696	105.389	5492
3710	105.783	5649
3724	106.177	5728
3738	106.57	5781
3752	106.964	5729
3766	107.358	5484
3780	107.752	5697
3794	108.145	5716
3808	108.539	5492
3822	108.933	5584
3836	109.327	5383
3850	109.72	5506
3864	110.114	5464
3878	110.508	5198
3892	110.901	5422
3906	111.295	5422
3920	111.689	5596
3934	112.083	5460
3948	112.476	5607
3962	112.87	5782
3976	113.264	5819
3990	113.657	5759
4004	114.051	6187
4018	114.445	7557
4032	114.839	10694
4046	115.232	605
4060	115.626	64
4074	116.02	36
4088	116.414	33
4095	116.61	41